Data from Samples_AbsoluteIrradiance_00046.txt Node
Date: Tue Nov 05 13:32:16 MST 2019
User: wkolb
Spectrometer: FLMS05493
Trigger mode: 0
Integration Time (sec): 1.000000E-3
Scans to average: 20
Electric dark correction enabled: true
Nonlinearity correction enabled: true
Boxcar width: 0
XAxis mode: Wavelengths
Number of Pixels in Spectrum: 2048
>>>>>Begin Spectral Data<<<<<
340.355	-0
340.733	-0
341.111	-0
341.488	-0
341.866	0
342.244	0
342.621	-0
342.999	0
343.376	0
343.754	0
344.131	-0
344.509	0
344.886	-0
345.264	0
345.641	0
346.018	0
346.396	0
346.773	0
347.15	0
347.527	0
347.904	0
348.281	-0
348.658	0
349.035	0
349.412	0
349.789	0
350.166	0.00802672
350.543	0.00652667
350.919	0.00938748
351.296	0.00603262
351.673	0.0091612
352.05	0.01188491
352.426	0.00824539
352.803	0.0090839
353.179	0.00943334
353.556	0.00928735
353.932	0.0105389
354.309	0.01498946
354.685	0.01099223
355.061	0.00821349
355.438	0.01450531
355.814	0.01344658
356.19	0.0087274
356.566	0.00826554
356.942	0.01377077
357.319	0.01276825
357.695	0.01301963
358.071	0.00901727
358.447	0.00699194
358.823	0.00861924
359.199	0.01050423
359.574	0.01348175
359.95	0.00954753
360.326	0.01584998
360.702	0.01099724
361.077	0.00820716
361.453	0.01192136
361.829	0.01132511
362.204	0.01361526
362.58	0.01098147
362.955	0.0167193
363.331	0.01107206
363.706	0.01116865
364.082	0.00889005
364.457	0.01376766
364.832	0.01493551
365.208	0.01624074
365.583	0.011461
365.958	0.0091001
366.333	0.01594091
366.708	0.01633794
367.083	0.01557801
367.459	0.01084858
367.834	0.01112264
368.208	0.00988684
368.583	0.01085078
368.958	0.0110052
369.333	0.01574208
369.708	0.0196824
370.083	0.01524581
370.457	0.01400273
370.832	0.01264693
371.207	0.01379188
371.581	0.00741596
371.956	0.0129516
372.33	0.00808915
372.705	0.01272168
373.079	0.01448265
373.454	0.01822664
373.828	0.01401897
374.202	0.01918046
374.577	0.01327214
374.951	0.01475992
375.325	0.01330073
375.699	0.01829801
376.073	0.01425187
376.448	0.01758144
376.822	0.01629977
377.196	0.01472979
377.57	0.01459631
377.943	0.01424811
378.317	0.01803805
378.691	0.01516138
379.065	0.01225767
379.439	0.01438227
379.812	0.01524721
380.186	0.01151324
380.56	0.01391621
380.933	0.01488926
381.307	0.01155367
381.68	0.01478517
382.054	0.01954052
382.427	0.0129155
382.801	0.01157353
383.174	0.01403862
383.548	0.01225912
383.921	0.013153
384.294	0.0142446
384.667	0.01375955
385.04	0.01487726
385.414	0.01590009
385.787	0.01627933
386.16	0.0122923
386.533	0.01180522
386.906	0.01322492
387.279	0.01270954
387.651	0.01646141
388.024	0.01451915
388.397	0.01378152
388.77	0.01446043
389.143	0.01676087
389.515	0.02172591
389.888	0.01591416
390.26	0.01632789
390.633	0.01806521
391.006	0.0138078
391.378	0.01801083
391.751	0.01766001
392.123	0.02037891
392.495	0.0165534
392.868	0.01594948
393.24	0.01059679
393.612	0.01245433
393.984	0.0141214
394.356	0.01269126
394.729	0.01699861
395.101	0.01830988
395.473	0.01973527
395.845	0.01353624
396.217	0.01328227
396.589	0.01550658
396.96	0.01253448
397.332	0.01524274
397.704	0.02097828
398.076	0.02243985
398.448	0.0163332
398.819	0.01949534
399.191	0.02197366
399.562	0.01824023
399.934	0.02074116
400.306	0.02117379
400.677	0.02124793
401.048	0.02277308
401.42	0.02583213
401.791	0.02378751
402.163	0.02093415
402.534	0.02382322
402.905	0.02579613
403.276	0.02407369
403.647	0.02407299
404.018	0.02475438
404.39	0.02368303
404.761	0.02378568
405.132	0.02520904
405.503	0.02469366
405.873	0.02386164
406.244	0.02182506
406.615	0.02227316
406.986	0.02247945
407.357	0.02288143
407.727	0.02412904
408.098	0.02318305
408.469	0.02506367
408.839	0.02793018
409.21	0.0252557
409.58	0.02586341
409.951	0.02412641
410.321	0.02272611
410.692	0.02592694
411.062	0.02752853
411.432	0.02486947
411.802	0.02765985
412.173	0.02843704
412.543	0.02399929
412.913	0.02840879
413.283	0.02969123
413.653	0.02648438
414.023	0.02918979
414.393	0.0303122
414.763	0.02674305
415.133	0.03031091
415.503	0.02855052
415.873	0.02849486
416.242	0.02973707
416.612	0.03138893
416.982	0.0314097
417.351	0.02910318
417.721	0.03187209
418.091	0.02619174
418.46	0.02618634
418.83	0.03197647
419.199	0.03170162
419.568	0.03012655
419.938	0.02957799
420.307	0.03419555
420.676	0.03218736
421.046	0.0336292
421.415	0.03325981
421.784	0.03189787
422.153	0.03323822
422.522	0.03051173
422.891	0.03395161
423.26	0.03516918
423.629	0.03566059
423.998	0.03139515
424.367	0.03258448
424.736	0.0341723
425.105	0.03536039
425.473	0.03603851
425.842	0.03332643
426.211	0.03639943
426.579	0.0313905
426.948	0.03388452
427.316	0.03467612
427.685	0.03064394
428.053	0.03484021
428.422	0.03099453
428.79	0.03253028
429.159	0.03283853
429.527	0.02770177
429.895	0.02879739
430.263	0.02844033
430.632	0.03016777
431	0.03144877
431.368	0.03238703
431.736	0.03534909
432.104	0.03666549
432.472	0.03526464
432.84	0.03681825
433.208	0.03687686
433.575	0.03754179
433.943	0.03793341
434.311	0.03593407
434.679	0.03720494
435.046	0.03847501
435.414	0.04112774
435.782	0.04051888
436.149	0.04277519
436.517	0.04139311
436.884	0.0411958
437.252	0.04036
437.619	0.04046419
437.986	0.038882
438.354	0.03678169
438.721	0.04098045
439.088	0.04059872
439.455	0.0406845
439.823	0.0417264
440.19	0.04301541
440.557	0.04335538
440.924	0.042762
441.291	0.04380631
441.658	0.04440812
442.025	0.04656885
442.391	0.04467211
442.758	0.04682404
443.125	0.04570783
443.492	0.04521443
443.858	0.04673138
444.225	0.0461728
444.592	0.04655715
444.958	0.04687107
445.325	0.04707679
445.691	0.04433913
446.058	0.04338322
446.424	0.04774353
446.79	0.04999276
447.157	0.05025955
447.523	0.04950765
447.889	0.05061189
448.255	0.05191634
448.622	0.04956182
448.988	0.05059478
449.354	0.05218801
449.72	0.05333453
450.086	0.05536896
450.452	0.05356131
450.818	0.05519921
451.184	0.05509635
451.549	0.05442038
451.915	0.05650744
452.281	0.05132436
452.647	0.05235024
453.012	0.05342305
453.378	0.05366064
453.743	0.05321581
454.109	0.05618758
454.474	0.05469611
454.84	0.05423731
455.205	0.05431248
455.571	0.05664218
455.936	0.05673559
456.301	0.05679979
456.666	0.05727358
457.032	0.05431014
457.397	0.05751882
457.762	0.05819906
458.127	0.0566093
458.492	0.05697522
458.857	0.05622696
459.222	0.05431051
459.587	0.0568423
459.952	0.05684427
460.317	0.05859469
460.681	0.06065203
461.046	0.06016022
461.411	0.05980866
461.775	0.06076802
462.14	0.06091414
462.505	0.06210165
462.869	0.05990862
463.234	0.06124854
463.598	0.05844412
463.962	0.06052955
464.327	0.06014803
464.691	0.05738814
465.055	0.05910026
465.42	0.05808625
465.784	0.06131876
466.148	0.05889251
466.512	0.05754358
466.876	0.06114762
467.24	0.06022267
467.604	0.06014079
467.968	0.05918415
468.332	0.06189554
468.696	0.06057546
469.06	0.06048937
469.423	0.05968633
469.787	0.06262674
470.151	0.05883786
470.515	0.05796134
470.878	0.06253802
471.242	0.06211804
471.605	0.06295297
471.969	0.06420204
472.332	0.063652
472.696	0.06076375
473.059	0.06117447
473.422	0.06051269
473.785	0.06271058
474.149	0.06299872
474.512	0.06395818
474.875	0.06442292
475.238	0.06408454
475.601	0.06183911
475.964	0.06414268
476.327	0.06177041
476.69	0.0615078
477.053	0.06390126
477.416	0.06488606
477.779	0.06603462
478.141	0.06708078
478.504	0.06554305
478.867	0.06549394
479.229	0.06532354
479.592	0.06601073
479.955	0.06405237
480.317	0.06627611
480.68	0.06584699
481.042	0.06570507
481.404	0.06680517
481.767	0.06677421
482.129	0.06799951
482.491	0.06618404
482.854	0.06731829
483.216	0.06559024
483.578	0.06695165
483.94	0.06325027
484.302	0.0651932
484.664	0.06315775
485.026	0.06246496
485.388	0.05969062
485.75	0.05796075
486.112	0.05635926
486.473	0.05747917
486.835	0.05901785
487.197	0.0617636
487.559	0.06342046
487.92	0.06293498
488.282	0.06431527
488.643	0.06463642
489.005	0.06564016
489.366	0.06776546
489.728	0.06842438
490.089	0.06713678
490.45	0.06819994
490.812	0.06712412
491.173	0.06906196
491.534	0.06475541
491.895	0.0677687
492.256	0.06758629
492.617	0.06895054
492.978	0.07050401
493.339	0.07102389
493.7	0.07156766
494.061	0.07300417
494.422	0.07263365
494.783	0.07441754
495.144	0.07410435
495.504	0.07579724
495.865	0.07585036
496.226	0.07631786
496.586	0.07607936
496.947	0.07763181
497.308	0.07822622
497.668	0.07671038
498.028	0.07737843
498.389	0.07586692
498.749	0.07892007
499.109	0.07965013
499.47	0.07975327
499.83	0.07964788
500.19	0.07961927
500.55	0.07968016
500.91	0.07854226
501.27	0.08085391
501.63	0.08147603
501.99	0.08349488
502.35	0.0845455
502.71	0.08681826
503.07	0.08691106
503.43	0.08668177
503.79	0.08802081
504.149	0.0904641
504.509	0.09278045
504.869	0.09582415
505.228	0.09644252
505.588	0.10121217
505.947	0.10050222
506.307	0.10098126
506.666	0.10375484
507.025	0.10346976
507.385	0.10549486
507.744	0.10669623
508.103	0.10538843
508.462	0.1095165
508.822	0.11338157
509.181	0.11344177
509.54	0.11655629
509.899	0.11654255
510.258	0.11908591
510.617	0.12290993
510.976	0.12518364
511.335	0.12665579
511.693	0.12826736
512.052	0.13035095
512.411	0.13137435
512.77	0.13337348
513.128	0.13333028
513.487	0.1340795
513.845	0.13878459
514.204	0.14014437
514.562	0.14465031
514.921	0.14700992
515.279	0.14866876
515.637	0.15127632
515.996	0.14917867
516.354	0.1463191
516.712	0.14422558
517.07	0.14626772
517.428	0.15112876
517.787	0.15668037
518.145	0.15893622
518.503	0.16435898
518.861	0.17180311
519.218	0.17646315
519.576	0.18243315
519.934	0.1868322
520.292	0.1919452
520.65	0.1951122
521.007	0.20026849
521.365	0.20547353
521.723	0.20941909
522.08	0.20965306
522.438	0.21250575
522.795	0.2152019
523.153	0.22068563
523.51	0.22916513
523.867	0.23572523
524.225	0.23886979
524.582	0.24205611
524.939	0.24421204
525.296	0.24618888
525.653	0.24757541
526.011	0.24470506
526.368	0.24291099
526.725	0.24322307
527.082	0.24911088
527.438	0.25611711
527.795	0.26510746
528.152	0.27481432
528.509	0.28095743
528.866	0.29171431
529.222	0.29108286
529.579	0.29636987
529.936	0.30228916
530.292	0.30718474
530.649	0.31507832
531.005	0.31720768
531.362	0.32049346
531.718	0.31829402
532.074	0.31546654
532.431	0.31616246
532.787	0.3178171
533.143	0.32386452
533.499	0.32950695
533.855	0.33399796
534.212	0.34179688
534.568	0.34652211
534.924	0.35732086
535.28	0.35774821
535.636	0.36377844
535.991	0.36435379
536.347	0.3641414
536.703	0.36073568
537.059	0.36629057
537.414	0.37178338
537.77	0.37726548
538.126	0.38066145
538.481	0.38252767
538.837	0.38299834
539.192	0.38024633
539.548	0.37921907
539.903	0.37884839
540.258	0.38140219
540.614	0.38274518
540.969	0.39131861
541.324	0.39674045
541.679	0.40144632
542.035	0.40627176
542.39	0.40678639
542.745	0.40973528
543.1	0.41384906
543.455	0.42183299
543.81	0.4278607
544.164	0.42903741
544.519	0.43235399
544.874	0.43423367
545.229	0.4365534
545.584	0.44144537
545.938	0.44591423
546.293	0.44542329
546.647	0.44551514
547.002	0.44700599
547.356	0.44965648
547.711	0.45048823
548.065	0.45529009
548.42	0.45784029
548.774	0.4643686
549.128	0.46842616
549.482	0.47012471
549.836	0.47163124
550.191	0.47351973
550.545	0.47463265
550.899	0.47545241
551.253	0.48038248
551.607	0.48493152
551.961	0.48650808
552.314	0.48436249
552.668	0.48482362
553.022	0.48466419
553.376	0.48732092
553.73	0.49235121
554.083	0.49314765
554.437	0.49832255
554.79	0.49813721
555.144	0.50130771
555.497	0.49953094
555.851	0.49566055
556.204	0.49736768
556.557	0.4909664
556.911	0.48952713
557.264	0.48574958
557.617	0.49020164
557.97	0.48591096
558.323	0.48311478
558.677	0.47879064
559.03	0.47740851
559.383	0.47344683
559.736	0.4802374
560.088	0.48124327
560.441	0.48622688
560.794	0.48614462
561.147	0.483338
561.5	0.47943895
561.852	0.48086146
562.205	0.47884716
562.557	0.4804668
562.91	0.4815256
563.263	0.47724275
563.615	0.47823911
563.967	0.47512858
564.32	0.47332843
564.672	0.4704667
565.024	0.46586113
565.377	0.45898274
565.729	0.45556728
566.081	0.45254009
566.433	0.4587031
566.785	0.45719865
567.137	0.45578318
567.489	0.4544898
567.841	0.44900196
568.193	0.44457721
568.545	0.43855045
568.897	0.43577306
569.248	0.43431248
569.6	0.42963953
569.952	0.42313237
570.303	0.41962499
570.655	0.41466986
571.006	0.40938329
571.358	0.40947757
571.709	0.41227008
572.061	0.41692683
572.412	0.41847202
572.763	0.41736865
573.115	0.41040381
573.466	0.40873675
573.817	0.40645307
574.168	0.40126419
574.519	0.39952596
574.87	0.39319995
575.221	0.38715053
575.572	0.38536141
575.923	0.38093384
576.274	0.38307832
576.625	0.38191306
576.976	0.38030184
577.326	0.37684252
577.677	0.37197406
578.028	0.36621046
578.378	0.36150309
578.729	0.36409986
579.079	0.36286049
579.43	0.36272834
579.78	0.36278734
580.131	0.36197198
580.481	0.36200409
580.831	0.3591305
581.182	0.36128809
581.532	0.35999799
581.882	0.35992106
582.232	0.35878297
582.582	0.35484538
582.932	0.35839006
583.282	0.35469342
583.632	0.3543522
583.982	0.35320189
584.332	0.3488959
584.682	0.3471968
585.031	0.34444783
585.381	0.33993517
585.731	0.33510222
586.08	0.33542987
586.43	0.33528712
586.779	0.33264852
587.129	0.33431026
587.478	0.32908223
587.828	0.32362522
588.177	0.31622631
588.526	0.30503412
588.876	0.29442396
589.225	0.28936752
589.574	0.28866964
589.923	0.29340862
590.272	0.29988943
590.621	0.30438475
590.97	0.30633058
591.319	0.30444894
591.668	0.30611732
592.017	0.30500531
592.366	0.30483416
592.715	0.30745185
593.063	0.30740156
593.412	0.30466382
593.761	0.30586421
594.109	0.30375152
594.458	0.30229275
594.806	0.29830534
595.155	0.29996637
595.503	0.30363989
595.851	0.30497968
596.2	0.30633506
596.548	0.306205
596.896	0.30555343
597.244	0.30473787
597.593	0.30468174
597.941	0.30119692
598.289	0.30062402
598.637	0.30026626
598.985	0.30323767
599.333	0.3014866
599.681	0.30117208
600.028	0.29792238
600.376	0.29857393
600.724	0.29595795
601.072	0.29817402
601.419	0.29609219
601.767	0.29429321
602.114	0.29390846
602.462	0.2937998
602.809	0.29608121
603.157	0.29855741
603.504	0.30032376
603.851	0.2986137
604.199	0.29424396
604.546	0.29722004
604.893	0.29549052
605.24	0.29562937
605.587	0.2890149
605.935	0.28713465
606.282	0.28769838
606.629	0.28684844
606.975	0.28499573
607.322	0.28432184
607.669	0.28158803
608.016	0.27820325
608.363	0.27470289
608.709	0.27492092
609.056	0.27131582
609.403	0.272568
609.749	0.26851636
610.096	0.26607536
610.442	0.26352621
610.789	0.26595095
611.135	0.2617607
611.481	0.26306981
611.828	0.25615188
612.174	0.25417612
612.52	0.25472709
612.866	0.25138493
613.212	0.24795736
613.558	0.24578578
613.904	0.2449635
614.25	0.24070417
614.596	0.23989436
614.942	0.2401169
615.288	0.2383252
615.634	0.23473041
615.98	0.2313874
616.325	0.22707907
616.671	0.22818701
617.017	0.22929115
617.362	0.22846579
617.708	0.22998661
618.053	0.23034574
618.399	0.22745324
618.744	0.22490507
619.089	0.22538804
619.435	0.22728138
619.78	0.22719952
620.125	0.2223577
620.47	0.22435544
620.815	0.22088455
621.16	0.22104682
621.505	0.22063224
621.85	0.22033898
622.195	0.21551647
622.54	0.21485139
622.885	0.21379266
623.23	0.21391596
623.575	0.21302257
623.919	0.21083125
624.264	0.20819612
624.609	0.20909805
624.953	0.20572593
625.298	0.20719151
625.642	0.20532402
625.987	0.20570203
626.331	0.20499966
626.675	0.20878291
627.02	0.2074126
627.364	0.20508516
627.708	0.20039655
628.052	0.19973874
628.396	0.20271669
628.74	0.20262943
629.084	0.20232976
629.428	0.20008322
629.772	0.20220249
630.116	0.20334626
630.46	0.20511561
630.804	0.20269532
631.148	0.201215
631.491	0.19957955
631.835	0.1995549
632.179	0.20212189
632.522	0.20379676
632.866	0.20607767
633.209	0.2038744
633.553	0.20425696
633.896	0.20063724
634.239	0.19997814
634.583	0.20217015
634.926	0.20230853
635.269	0.20132906
635.612	0.20237363
635.955	0.2000285
636.298	0.20232783
636.641	0.20073932
636.984	0.20003677
637.327	0.20041461
637.67	0.19892547
638.013	0.19796801
638.356	0.19530339
638.699	0.1979628
639.041	0.19606779
639.384	0.19198463
639.726	0.18911695
640.069	0.1850937
640.412	0.18382002
640.754	0.18424682
641.096	0.18018342
641.439	0.18156294
641.781	0.18075923
642.123	0.17566936
642.466	0.17628029
642.808	0.17165708
643.15	0.17459086
643.492	0.17056666
643.834	0.1708686
644.176	0.16879701
644.518	0.16610707
644.86	0.16328509
645.202	0.16079833
645.544	0.1598101
645.885	0.15227018
646.227	0.15261119
646.569	0.1545927
646.91	0.14655462
647.252	0.14493894
647.594	0.143506
647.935	0.14193435
648.277	0.14203557
648.618	0.13927856
648.959	0.13786227
649.301	0.13959033
649.642	0.13467898
649.983	0.13662314
650.324	0.13701695
650.665	0.13774929
651.007	0.13386189
651.348	0.13252989
651.689	0.13189582
652.029	0.13177047
652.37	0.13251874
652.711	0.13204166
653.052	0.13347141
653.393	0.12882877
653.734	0.12961663
654.074	0.12463767
654.415	0.12609001
654.755	0.12254891
655.096	0.12055793
655.436	0.11469653
655.777	0.10916393
656.117	0.10542503
656.458	0.1054853
656.798	0.10522138
657.138	0.1058334
657.478	0.10566032
657.818	0.11120901
658.159	0.10902407
658.499	0.11060987
658.839	0.11010108
659.179	0.10495829
659.519	0.11006075
659.858	0.10616778
660.198	0.10583153
660.538	0.10352576
660.878	0.10263212
661.217	0.10460839
661.557	0.10193275
661.897	0.09895528
662.236	0.10001238
662.576	0.0966119
662.915	0.09586826
663.255	0.09670261
663.594	0.09291343
663.933	0.09174247
664.273	0.09375982
664.612	0.08755206
664.951	0.08752022
665.29	0.08714894
665.629	0.08606128
665.968	0.08495127
666.307	0.08312534
666.646	0.08253349
666.985	0.08381058
667.324	0.08319009
667.663	0.07989313
668.002	0.08205121
668.34	0.0788858
668.679	0.08012635
669.018	0.07585628
669.356	0.07825062
669.695	0.07702168
670.033	0.07454714
670.372	0.07506412
670.71	0.07597609
671.048	0.07520955
671.387	0.07241377
671.725	0.07168468
672.063	0.07026177
672.401	0.07170998
672.739	0.07453125
673.077	0.07269932
673.415	0.07069296
673.753	0.07453677
674.091	0.07094679
674.429	0.07086358
674.767	0.07051692
675.105	0.07143337
675.443	0.07141857
675.78	0.07154353
676.118	0.07225668
676.456	0.07022135
676.793	0.07296631
677.131	0.07280255
677.468	0.06890513
677.805	0.06942144
678.143	0.07043086
678.48	0.07463226
678.817	0.07292806
679.155	0.07305837
679.492	0.07323178
679.829	0.07157195
680.166	0.0740311
680.503	0.07215778
680.84	0.07404095
681.177	0.07536897
681.514	0.07481127
681.851	0.07577966
682.187	0.07656365
682.524	0.0801717
682.861	0.07629933
683.198	0.07784113
683.534	0.07811191
683.871	0.08286067
684.207	0.08167706
684.544	0.08395014
684.88	0.08144801
685.217	0.08194975
685.553	0.08739737
685.889	0.08868156
686.225	0.0848557
686.562	0.08261862
686.898	0.08192962
687.234	0.08302299
687.57	0.0818729
687.906	0.08740545
688.242	0.09484785
688.578	0.09855678
688.914	0.10235934
689.249	0.10816105
689.585	0.10915834
689.921	0.11650587
690.257	0.12428077
690.592	0.12973283
690.928	0.13697972
691.263	0.14113383
691.599	0.14935199
691.934	0.16124004
692.27	0.16474202
692.605	0.17284539
692.94	0.18425056
693.275	0.19035561
693.611	0.1983462
693.946	0.20580795
694.281	0.21470216
694.616	0.22814162
694.951	0.23647587
695.286	0.25189783
695.621	0.26413885
695.956	0.28036716
696.291	0.29385156
696.625	0.31377264
696.96	0.32779177
697.295	0.35122107
697.629	0.35653012
697.964	0.37208656
